* Sea-Bird SBE19plus Data File:
* FileName = C:\data\otf\2007\ctd-07076.hex
* Software Version 1.55
* Temperature SN =  5061
* Conductivity SN =  5061
* System UpLoad Time = Aug 15 2007 16:18:35
* ds
* SeacatPlus V 1.6a  SERIAL NO. 5061    15 Aug 2007  15:31:53
* vbatt = 10.9, vlith =  8.7, ioper =  61.6 ma, ipump =  57.5 ma, 
* iext01 =  95.2 ma
* iext23 =  58.1 ma
* 
* status = not logging
* number of scans to average = 1
* samples = 153039, free = 288466, casts = 154
* mode = profile, minimum cond freq = 3000, pump delay = 60 sec
* autorun = no, ignore magnetic switch = no
* battery type = alkaline, battery cutoff =  7.3 volts
* pressure sensor = strain gauge, range = 870.0
* SBE 38 = no, Gas Tension Device = no
* Ext Volt 0 = yes, Ext Volt 1 = yes, Ext Volt 2 = yes, Ext Volt 3 = yes
* echo commands = yes
* output format = raw HEX
* S>
* 
* SeacatPlus V 1.6a  SERIAL NO. 5061    15 Aug 2007  15:32:18
* temperature:  05-oct-06
*     TA0 = 1.254184e-03
*     TA1 = 2.596730e-04
*     TA2 = 5.165612e-07
*     TA3 = 1.318931e-07
*     TOFFSET = 0.000000e+00
* conductivity:  05-oct-06
*     G = -9.978144e-01
*     H = 1.555200e-01
*     I = -4.839108e-04
*     J = 6.121100e-05
*     CF0 = 2.539936e+03
*     CPCOR = -9.570000e-08
*     CTCOR = 3.250000e-06
*     CSLOPE = 1.000000e+00
* pressure S/N = 2362539, range = 870 psia:  24-aug-06
*     PA0 = 2.171091e-01
*     PA1 = 2.647085e-03
*     PA2 = 1.419397e-11
*     PTCA0 = 5.242437e+05
*     PTCA1 = 7.545345e+00
*     PTCA2 = -1.835354e-01
*     PTCB0 = 2.537125e+01
*     PTCB1 = -1.750000e-03
*     PTCB2 = 0.000000e+00
*     PTEMPA0 = -5.753989e+01
*     PTEMPA1 = 5.235813e+01
*     PTEMPA2 = -4.015521e-02
*     POFFSET = 0.000000e+00
* volt 0: offset = -4.682842e-02, slope = 1.249147e+00
* volt 1: offset = -4.695158e-02, slope = 1.248145e+00
* volt 2: offset = -4.685263e-02, slope = 1.248783e+00
* volt 3: offset = -4.690316e-02, slope = 1.249508e+00
*     EXTFREQSF = 1.000002e+00
* dh
* cast  76 15 Jul 2007 10:58:39 samples 50018 to 50188, avg = 4, stop = mag switch
* S> 
# nquan = 10
# nvalues = 79                          
# units = specified
# name 0 = depSM: Depth [salt water, m]
# name 1 = tv290C: Temperature [ITS-90, deg C]
# name 2 = sal00: Salinity [PSU]
# name 3 = sbeox0Mg/L: Oxygen, SBE 43 [mg/l]
# name 4 = sbeox0PS: Oxygen, SBE 43 [% saturation]
# name 5 = sigma-t00: Density [sigma-t, Kg/m^3 ]
# name 6 = par: PAR/Irradiance, Biospherical/Licor
# name 7 = prdM: Pressure, Strain Gauge [db]
# name 8 = flECO-AFL: Fluorescence, Wetlab ECO-AFL/FL [mg/m^3]
# name 9 = flag: flag
# span 0 =      1.000,     41.000       
# span 1 =     8.9253,     9.0164       
# span 2 =    31.4332,    31.5711       
# span 3 =    9.24537,   10.76528       
# span 4 =   97.82200,  104.81715       
# span 5 =    24.3327,    24.4324       
# span 6 = 1.5625e+00, 1.8272e+03       
# span 7 =      1.985,     40.424       
# span 8 =     0.6394,     1.4022       
# span 9 = 0.0000e+00, 0.0000e+00       
# interval = meters: 1                  
# start_time = Jul 15 2007 10:58:39
# bad_flag = -9.990e-29
# sensor 0 = Frequency 0  temperature, 5061, 05-Oct-06
# sensor 1 = Frequency 1  conductivity, 5061, 05-Oct-06, cpcor = -9.5700e-08
# sensor 2 = Pressure Number
# sensor 3 = Extrnl Volt  0  irradiance (PAR), primary, 4751, 08/10/06
# sensor 4 = Extrnl Volt  1  Oxygen, SBE, primary, 1081, 10/24/06
# sensor 5 = Extrnl Volt  2  WET Labs, ECO_AFL
# sensor 6 = Extrnl Volt  3  userpoly 0, 0627, 10/11/06
# datcnv_date = Oct 15 2007 14:49:46, 5.37e
# datcnv_in = I:\bob d\OTF_GEM\2007\ctd-07076.hex I:\Willette\OTF\CTD\5061.con
# datcnv_skipover = 0
# filter_date = Oct 15 2007 15:02:26, 5.37e
# filter_in = I:\Willette\OTF\CTD\2007\CTD Data\ctd-07076.cnv
# filter_low_pass_tc_A = 1.000
# filter_low_pass_tc_B = 0.150
# filter_low_pass_A_vars = prdM
# filter_low_pass_B_vars =
# loopedit_date = Oct 15 2007 15:06:48, 5.37e
# loopedit_in = I:\Willette\OTF\CTD\2007\CTD Data\ctd-07076.cnv
# loopedit_minVelocity = 0.250                                                                                            
# loopedit_surfaceSoak: minDepth = 5.0, maxDepth = 20, useDeckPress = 1                                                   
# loopedit_excl_bad_scans = yes
# alignctd_date = Oct 15 2007 15:14:16, 5.37e
# alignctd_in = I:\Willette\OTF\CTD\2007\CTD Data\ctd-07076.cnv
# alignctd_adv = tv290C 0.500, sbeox0Mg/L 4.000, sbeox0PS 4.000                                                                                                                                                                      
# binavg_date = Oct 15 2007 15:18:44, 5.37e
# binavg_in = I:\Willette\OTF\CTD\2007\CTD Data\ctd-07076.cnv
# binavg_bintype = meters
# binavg_binsize = 1
# binavg_excl_bad_scans = yes
# binavg_skipover = 0
# binavg_surface_bin = no, min = 0.000, max = 0.000, value = 0.000
# file_type = ascii
*END*
      3.000     8.9870    31.5350    9.24537   97.82200    24.4017 5.8452e+02      4.255     0.6394 0.0000e+00
      4.000     8.9772    31.5209    9.31249   98.52606    24.3942 4.6730e+02      4.919     0.6719 0.0000e+00
      5.000     8.9719    31.5114    9.37551   99.19288    24.3893 3.4886e+02      5.599     0.7414 0.0000e+00
      6.000 -9.990e-29 -9.990e-29 -9.990e-29 -9.990e-29 -9.990e-29 -9.990e-29 -9.990e-29 -9.990e-29 -9.990e-29
      7.000     8.9789    31.4922    9.41007   99.55992    24.3764 2.1982e+02      6.547     0.9276 0.0000e+00
      8.000     8.9839    31.5050    9.45369   99.99934    24.3864 1.3718e+02      7.618     1.1293 0.0000e+00
      9.000     9.0164    31.5020    9.48684  100.33826    24.3833 1.0182e+02      8.523     1.1812 0.0000e+00
     10.000     9.0030    31.5711    9.49223  100.38975    24.4324 7.3223e+01     10.430     1.2963 0.0000e+00
     11.000     8.9622    31.5050    9.50633  100.52729    24.3838 5.5449e+01     12.290     1.2702 0.0000e+00
     12.000     8.9676    31.4424    9.52629  100.71813    24.3359 4.2939e+01     13.392     1.2476 0.0000e+00
     13.000     8.9628    31.4860    9.59888  101.48519    24.3740 3.2903e+01     14.076     1.2238 0.0000e+00
     14.000     8.9600    31.4679    9.68962  102.43897    24.3585 2.5142e+01     15.202     1.1598 0.0000e+00
     15.000     8.9585    31.4629    9.70516  102.60507    24.3553 2.0017e+01     15.944     1.1779 0.0000e+00
     16.000     8.9595    31.4625    9.73454  102.91593    24.3553 1.5924e+01     16.829     1.1802 0.0000e+00
     17.000     8.9617    31.4613    9.75224  103.10188    24.3546 1.2780e+01     17.643     1.1701 0.0000e+00
     18.000     8.9582    31.4622    9.76577  103.24400    24.3553 1.0136e+01     18.556     1.1568 0.0000e+00
     19.000 -9.990e-29 -9.990e-29 -9.990e-29 -9.990e-29 -9.990e-29 -9.990e-29 -9.990e-29 -9.990e-29 -9.990e-29
     20.000     8.9448    31.4547    9.78488  103.44618    24.3490 6.9653e+00     20.115     1.1313 0.0000e+00
     21.000     8.9436    31.4570    9.79274  103.52873    24.3517 5.4554e+00     21.216     1.1589 0.0000e+00
     22.000     8.9442    31.4629    9.80057  103.60997    24.3577 4.5597e+00     22.177     1.1876 0.0000e+00
     23.000 -9.990e-29 -9.990e-29 -9.990e-29 -9.990e-29 -9.990e-29 -9.990e-29 -9.990e-29 -9.990e-29 -9.990e-29
     24.000     8.9469    31.4642    9.81166  103.72493    24.3592 3.5542e+00     23.591     1.2084 0.0000e+00
     25.000     8.9405    31.4628    9.82785  103.89470    24.3580 2.8837e+00     24.975     1.1495 0.0000e+00
     26.000     8.9355    31.4632    9.82827  103.90359    24.3580 2.5696e+00     26.068     1.1666 0.0000e+00
     27.000     8.9373    31.4617    9.83210  103.94266    24.3577 2.3543e+00     27.047     1.2046 0.0000e+00
     28.000     8.9357    31.4650    9.83367  103.95651    24.3609 2.1774e+00     27.941     1.1822 0.0000e+00
     29.000     8.9329    31.4651    9.83420  103.96186    24.3610 2.0277e+00     28.956     1.1827 0.0000e+00
     30.000     8.9299    31.4541    9.84087  104.03237    24.3526 1.9163e+00     30.042     1.2237 0.0000e+00
     31.000     8.9290    31.4521    9.84563  104.08125    24.3514 1.8367e+00     30.927     1.2127 0.0000e+00
     32.000 -9.990e-29 -9.990e-29 -9.990e-29 -9.990e-29 -9.990e-29 -9.990e-29 -9.990e-29 -9.990e-29 -9.990e-29
     33.000     8.9287    31.4552    9.84002  104.03002    24.3544 1.7144e+00     32.840     1.1748 0.0000e+00
     34.000 -9.990e-29 -9.990e-29 -9.990e-29 -9.990e-29 -9.990e-29 -9.990e-29 -9.990e-29 -9.990e-29 -9.990e-29
     35.000     8.9278    31.4550    9.83791  104.01564    24.3543 1.6577e+00     34.299     1.1870 0.0000e+00
     36.000     8.9281    31.4552    9.84384  104.06935    24.3546 1.6202e+00     35.703     1.1315 0.0000e+00
     37.000     8.9276    31.4557    9.85326  104.16769    24.3551 1.6035e+00     36.521     1.2770 0.0000e+00
     38.000     8.9262    31.4556    9.85158  104.16429    24.3549 1.5897e+00     37.334     1.1660 0.0000e+00
     39.000     8.9253    31.4560    9.85399  104.17581    24.3553 1.5807e+00     38.072     1.2065 0.0000e+00
     40.000     8.9263    31.4565    9.85417  104.18341    24.3559 1.5721e+00     38.834     1.1747 0.0000e+00
     41.000     8.9267    31.4576    9.87210  104.37187    24.3567 1.5625e+00     40.424     1.1650 0.0000e+00
     40.000     8.9290    31.4585    9.88674  104.52723    24.3571 1.5704e+00     39.824     1.1549 0.0000e+00
     39.000     8.9300    31.4555    9.88972  104.56640    24.3547 1.5795e+00     38.948     1.2029 0.0000e+00
     38.000     8.9300    31.4561    9.89369  104.60943    24.3550 1.5900e+00     38.111     1.1721 0.0000e+00
     37.000     8.9292    31.4554    9.89466  104.62028    24.3545 1.6034e+00     37.196     1.1725 0.0000e+00
     36.000     8.9289    31.4560    9.89918  104.66882    24.3550 1.6205e+00     36.249     1.3348 0.0000e+00
     35.000     8.9293    31.4560    9.89830  104.66039    24.3551 1.6426e+00     35.374     1.2776 0.0000e+00
     34.000     8.9298    31.4556    9.89895  104.66231    24.3547 1.6705e+00     34.288     1.2423 0.0000e+00
     33.000     8.9321    31.4547    9.89570  104.62829    24.3539 1.7085e+00     33.285     1.2267 0.0000e+00
     32.000     8.9341    31.4532    9.89884  104.66149    24.3523 1.7566e+00     32.297     1.2462 0.0000e+00
     31.000     8.9347    31.4519    9.89591  104.63364    24.3510 1.8168e+00     31.262     1.2374 0.0000e+00
     30.000     8.9353    31.4514    9.89839  104.66076    24.3506 1.8959e+00     30.224     1.2489 0.0000e+00
     29.000     8.9351    31.4515    9.89878  104.66232    24.3506 1.9978e+00     29.257     1.2456 0.0000e+00
     28.000     8.9352    31.4514    9.89838  104.66084    24.3505 2.1269e+00     28.142     1.2521 0.0000e+00
     27.000     8.9332    31.4512    9.88866  104.55874    24.3504 2.2995e+00     27.232     1.2683 0.0000e+00
     26.000     8.9327    31.4529    9.88746  104.54284    24.3521 2.5207e+00     26.210     1.2881 0.0000e+00
     25.000     8.9335    31.4525    9.89605  104.63965    24.3518 2.8020e+00     25.173     1.2773 0.0000e+00
     24.000     8.9354    31.4523    9.90050  104.68694    24.3515 3.1773e+00     24.207     1.2781 0.0000e+00
     23.000     8.9353    31.4511    9.89887  104.66890    24.3502 3.6680e+00     23.168     1.2518 0.0000e+00
     22.000     8.9339    31.4519    9.89919  104.68116    24.3509 4.3117e+00     22.169     1.2688 0.0000e+00
     21.000     8.9355    31.4519    9.89819  104.68044    24.3511 5.1386e+00     21.167     1.2735 0.0000e+00
     20.000     8.9359    31.4508    9.89524  104.65176    24.3500 6.2194e+00     20.175     1.2277 0.0000e+00
     19.000     8.9348    31.4505    9.89942  104.69883    24.3498 7.6480e+00     19.165     1.2352 0.0000e+00
     18.000     8.9367    31.4502    9.90141  104.71501    24.3497 9.5177e+00     18.123     1.3017 0.0000e+00
     17.000     8.9372    31.4505    9.90346  104.74182    24.3496 1.2000e+01     17.127     1.3047 0.0000e+00
     16.000     8.9375    31.4502    9.90114  104.71845    24.3492 1.5250e+01     16.135     1.3549 0.0000e+00
     15.000     8.9410    31.4485    9.90185  104.73937    24.3479 1.9780e+01     15.077     1.3857 0.0000e+00
     14.000     8.9447    31.4477    9.90187  104.74986    24.3470 2.5627e+01     14.178     1.4022 0.0000e+00
     13.000     8.9497    31.4420    9.90156  104.75213    24.3415 3.3324e+01     13.050     1.1557 0.0000e+00
     12.000     8.9488    31.4411    9.90807  104.81715    24.3404 4.3845e+01     12.150     1.2279 0.0000e+00
     11.000     8.9494    31.4415    9.90412  104.76186    24.3408 5.8453e+01     11.086     1.2126 0.0000e+00
     10.000     8.9485    31.4396    9.89989  104.73086    24.3391 7.8240e+01     10.143     1.2874 0.0000e+00
      9.000     8.9514    31.4410    9.90137  104.75982    24.3407 1.0140e+02      8.933     1.2110 0.0000e+00
      8.000     8.9506    31.4405    9.84336  104.16500    24.3396 1.3773e+02      8.212     1.2596 0.0000e+00
      7.000     8.9588    31.4404   10.76528  102.99124    24.3396 1.8415e+02      7.060     1.2004 0.0000e+00
      6.000     8.9622    31.4399 -9.990e-29 -9.990e-29    24.3382 2.4766e+02      6.190     1.1627 0.0000e+00
      5.000     8.9650    31.4380 -9.990e-29 -9.990e-29    24.3360 3.2280e+02      5.195     1.0729 0.0000e+00
      4.000     8.9584    31.4371 -9.990e-29 -9.990e-29    24.3349 4.1942e+02      4.288     0.8843 0.0000e+00
      3.000     8.9592    31.4332 -9.990e-29 -9.990e-29    24.3327 5.3943e+02      3.439     0.8055 0.0000e+00
      2.000     8.9646    31.4381 -9.990e-29 -9.990e-29    24.3365 9.1363e+02      2.626     0.7138 0.0000e+00
      1.000     8.9681    31.4373 -9.990e-29 -9.990e-29    24.3350 1.8272e+03      1.985     0.6807 0.0000e+00
